LabVIEW Measurement	
Writer_Version	2
Reader_Version	2
Separator	Tab
Decimal_Separator	.
Multi_Headings	Yes
X_Columns	One
Time_Pref	Absolute
Operator	labuser
Date	2023/05/22
Time	16:01:48.439089849999776296
***End_of_Header***	
	
Channels	1	
Samples	700	
Date	2023/05/22	
Time	16:01:48.439089849999776296	
Y_Unit_Label	Volts	
X_Dimension	Time	
X0	0.0000000000000000E+0	
Delta_X	0.007143	
***End_of_Header***		
X_Value	Voltage	Comment
0.000000	1.676506
0.007143	1.674594
0.014286	1.667268
0.021429	1.675232
0.028571	1.672046
0.035714	1.667587
0.042857	1.675550
0.050000	1.673957
0.057143	1.670135
0.064286	1.671728
0.071429	1.675550
0.078571	1.673639
0.085714	1.676506
0.092857	1.676824
0.100000	1.675550
0.107143	1.647837
0.114286	1.675869
0.121428	1.666631
0.128571	1.671728
0.135714	1.674276
0.142857	1.681602
0.150000	1.668542
0.157143	1.672365
0.164286	1.677780
0.171428	1.677461
0.178571	1.674276
0.185714	1.674594
0.192857	1.675550
0.200000	1.673639
0.207143	1.676506
0.214285	1.670453
0.221428	1.671091
0.228571	1.675232
0.235714	1.672046
0.242857	1.671091
0.250000	1.676506
0.257143	1.675232
0.264285	1.662809
0.271428	1.677780
0.278571	1.666950
0.285714	1.664401
0.292857	1.675869
0.300000	1.669179
0.307143	1.671728
0.314285	1.675232
0.321428	1.672683
0.328571	1.669498
0.335714	1.673639
0.342857	1.672046
0.350000	1.671728
0.357143	1.679373
0.364285	1.663764
0.371428	1.671091
0.378571	1.666950
0.385714	1.677143
0.392857	1.662490
0.400000	1.675869
0.407142	1.659942
0.414285	1.674594
0.421428	1.670135
0.428571	1.676506
0.435714	1.675869
0.442857	1.675232
0.450000	1.675232
0.457142	1.674594
0.464285	1.673320
0.471428	1.677143
0.478571	1.679373
0.485714	1.670772
0.492857	1.676824
0.499999	1.675232
0.507142	1.666950
0.514285	1.680965
0.521428	1.664720
0.528571	1.673002
0.535714	1.666950
0.542857	1.671728
0.549999	1.671091
0.557142	1.673002
0.564285	1.673320
0.571428	1.669498
0.578571	1.677461
0.585714	1.668224
0.592857	1.670453
0.599999	1.673002
0.607142	1.677780
0.614285	1.669816
0.621428	1.657712
0.628571	1.673957
0.635714	1.665675
0.642857	1.673320
0.649999	1.675550
0.657142	1.669816
0.664285	1.676506
0.671428	1.666631
0.678571	1.672046
0.685714	1.671091
0.692856	1.672046
0.699999	1.670772
0.707142	1.667905
0.714285	1.673320
0.721428	1.668224
0.728571	1.674276
0.735714	1.675232
0.742856	1.668542
0.749999	1.674276
0.757142	1.673957
0.764285	1.665994
0.771428	1.678417
0.778571	1.669179
0.785713	1.671728
0.792856	1.673639
0.799999	1.666631
0.807142	1.677780
0.814285	1.664720
0.821428	1.676506
0.828571	1.669179
0.835713	1.669816
0.842856	1.673639
0.849999	1.674594
0.857142	1.676187
0.864285	1.668861
0.871428	1.679054
0.878571	1.663127
0.885713	1.674276
0.892856	1.664720
0.899999	1.671728
0.907142	1.666312
0.914285	1.674913
0.921428	1.665994
0.928570	1.674594
0.935713	1.671728
0.942856	1.675550
0.949999	1.675232
0.957142	1.671091
0.964285	1.673957
0.971428	1.675550
0.978570	1.663764
0.985713	1.680010
0.992856	1.671409
0.999999	1.676187
1.007142	1.672365
1.014285	1.675869
1.021428	1.680010
1.028570	1.665357
1.035713	1.669498
1.042856	1.664720
1.049999	1.676824
1.057142	1.672683
1.064285	1.667268
1.071427	1.667587
1.078570	1.674276
1.085713	1.670453
1.092856	1.674276
1.099999	1.670135
1.107142	1.674594
1.114285	1.674913
1.121427	1.672365
1.128570	1.670135
1.135713	1.671409
1.142856	1.671728
1.149999	1.667587
1.157142	1.673002
1.164285	1.660897
1.171427	1.674594
1.178570	1.655482
1.185713	1.675232
1.192856	1.665357
1.199999	1.671728
1.207142	1.668542
1.214284	1.669816
1.221427	1.675232
1.228570	1.672365
1.235713	1.669816
1.242856	1.668542
1.249999	1.669179
1.257142	1.671728
1.264284	1.664720
1.271427	1.679691
1.278570	1.668542
1.285713	1.676824
1.292856	1.665994
1.299999	1.678417
1.307142	1.671728
1.314284	1.671091
1.321427	1.669816
1.328570	1.674594
1.335713	1.674594
1.342856	1.675869
1.349999	1.673320
1.357141	1.672683
1.364284	1.668224
1.371427	1.672365
1.378570	1.672365
1.385713	1.674594
1.392856	1.675232
1.399999	1.666950
1.407141	1.675869
1.414284	1.666950
1.421427	1.676824
1.428570	1.669816
1.435713	1.671409
1.442856	1.672046
1.449999	1.676187
1.457141	1.679373
1.464284	1.670772
1.471427	1.675232
1.478570	1.666950
1.485713	1.677461
1.492856	1.671091
1.499999	1.676187
1.507141	1.669498
1.514284	1.682239
1.521427	1.672365
1.528570	1.664720
1.535713	1.669498
1.542856	1.674594
1.549998	1.670135
1.557141	1.672046
1.564284	1.675869
1.571427	1.671091
1.578570	1.669816
1.585713	1.674276
1.592856	1.671409
1.599998	1.675232
1.607141	1.665994
1.614284	1.674913
1.621427	1.674276
1.628570	1.673957
1.635713	1.665038
1.642856	1.667905
1.649998	1.673639
1.657141	1.666950
1.664284	1.672683
1.671427	1.670135
1.678570	1.673002
1.685713	1.666631
1.692855	1.675232
1.699998	1.666950
1.707141	1.671728
1.714284	1.676506
1.721427	1.672365
1.728570	1.674276
1.735713	1.665994
1.742855	1.670135
1.749998	1.673320
1.757141	1.674594
1.764284	1.673002
1.771427	1.672683
1.778570	1.677143
1.785713	1.671091
1.792855	1.674594
1.799998	1.671728
1.807141	1.676187
1.814284	1.668224
1.821427	1.666950
1.828570	1.674276
1.835712	1.669179
1.842855	1.674913
1.849998	1.673957
1.857141	1.672046
1.864284	1.673320
1.871427	1.673957
1.878570	1.676187
1.885712	1.665675
1.892855	1.671409
1.899998	1.674594
1.907141	1.661853
1.914284	1.674913
1.921427	1.670772
1.928570	1.674276
1.935712	1.673957
1.942855	1.671409
1.949998	1.669498
1.957141	1.678098
1.964284	1.670135
1.971427	1.670772
1.978569	1.669179
1.985712	1.675869
1.992855	1.671728
1.999998	1.674913
2.007141	1.665994
2.014284	1.672683
2.021427	1.670772
2.028569	1.667587
2.035712	1.673320
2.042855	1.671091
2.049998	1.670453
2.057141	1.671091
2.064284	1.671409
2.071426	1.667587
2.078569	1.671091
2.085712	1.673957
2.092855	1.670135
2.099998	1.673639
2.107141	1.668861
2.114284	1.667268
2.121426	1.678417
2.128569	1.669179
2.135712	1.679373
2.142855	1.663446
2.149998	1.672046
2.157141	1.673957
2.164284	1.665357
2.171426	1.674594
2.178569	1.661534
2.185712	1.673320
2.192855	1.664401
2.199998	1.669179
2.207141	1.667268
2.214284	1.669498
2.221426	1.673320
2.228569	1.671409
2.235712	1.676187
2.242855	1.666950
2.249998	1.677461
2.257141	1.665675
2.264283	1.673320
2.271426	1.674276
2.278569	1.659623
2.285712	1.671409
2.292855	1.671409
2.299998	1.669179
2.307141	1.673320
2.314283	1.671409
2.321426	1.672683
2.328569	1.669498
2.335712	1.674594
2.342855	1.668224
2.349998	1.677780
2.357140	1.672365
2.364283	1.668224
2.371426	1.674594
2.378569	1.671728
2.385712	1.667905
2.392855	1.676187
2.399998	1.671409
2.407140	1.671409
2.414283	1.671728
2.421426	1.662171
2.428569	1.674594
2.435712	1.668861
2.442855	1.671409
2.449998	1.677143
2.457140	1.669179
2.464283	1.672046
2.471426	1.675232
2.478569	1.671409
2.485712	1.674276
2.492855	1.668861
2.499998	1.680647
2.507140	1.671091
2.514283	1.678098
2.521426	1.671091
2.528569	1.678417
2.535712	1.661534
2.542855	1.676506
2.549997	1.667587
2.557140	1.665675
2.564283	1.671728
2.571426	1.675869
2.578569	1.670772
2.585712	1.673320
2.592855	1.673002
2.599997	1.662171
2.607140	1.671409
2.614283	1.669498
2.621426	1.671091
2.628569	1.671728
2.635712	1.669179
2.642854	1.676187
2.649997	1.667905
2.657140	1.672365
2.664283	1.674594
2.671426	1.666631
2.678569	1.674276
2.685712	1.672046
2.692854	1.650386
2.699997	1.672046
2.707140	1.668542
2.714283	1.673320
2.721426	1.672046
2.728569	1.665675
2.735712	1.673639
2.742854	1.667268
2.749997	1.672365
2.757140	1.667587
2.764283	1.665038
2.771426	1.676187
2.778569	1.669179
2.785712	1.675232
2.792854	1.666950
2.799997	1.669816
2.807140	1.669816
2.814283	1.667268
2.821426	1.671409
2.828569	1.672046
2.835711	1.671409
2.842854	1.676187
2.849997	1.668542
2.857140	1.672683
2.864283	1.678417
2.871426	1.668542
2.878569	1.674594
2.885711	1.662171
2.892854	1.676824
2.899997	1.658668
2.907140	1.673957
2.914283	1.663764
2.921426	1.666950
2.928568	1.675869
2.935711	1.678417
2.942854	1.673639
2.949997	1.674594
2.957140	1.671091
2.964283	1.672046
2.971426	1.673639
2.978568	1.673957
2.985711	1.674913
2.992854	1.671728
2.999997	1.673320
3.007140	1.671409
3.014283	1.672046
3.021426	1.673320
3.028568	1.675550
3.035711	1.673957
3.042854	1.630955
3.049997	1.672046
3.057140	1.673639
3.064283	1.667905
3.071426	1.674276
3.078568	1.671728
3.085711	1.670135
3.092854	1.675232
3.099997	1.666950
3.107140	1.674913
3.114283	1.667268
3.121425	1.676187
3.128568	1.673639
3.135711	1.671409
3.142854	1.677780
3.149997	1.669498
3.157140	1.676506
3.164283	1.664401
3.171425	1.675550
3.178568	1.673320
3.185711	1.669498
3.192854	1.677780
3.199997	1.665675
3.207140	1.672046
3.214282	1.667268
3.221425	1.676187
3.228568	1.667268
3.235711	1.673639
3.242854	1.673320
3.249997	1.671409
3.257140	1.669816
3.264282	1.677143
3.271425	1.673639
3.278568	1.663764
3.285711	1.679691
3.292854	1.671409
3.299997	1.678417
3.307140	1.674913
3.314282	1.669498
3.321425	1.668542
3.328568	1.671728
3.335711	1.673957
3.342854	1.673320
3.349997	1.673639
3.357140	1.673320
3.364282	1.671091
3.371425	1.672365
3.378568	1.670453
3.385711	1.669816
3.392854	1.665357
3.399997	1.673002
3.407139	1.667587
3.414282	1.668861
3.421425	1.673002
3.428568	1.667268
3.435711	1.677143
3.442854	1.674913
3.449997	1.666950
3.457139	1.672046
3.464282	1.672683
3.471425	1.671091
3.478568	1.673639
3.485711	1.678098
3.492854	1.673002
3.499996	1.664720
3.507139	1.671728
3.514282	1.674594
3.521425	1.663446
3.528568	1.677143
3.535711	1.666631
3.542854	1.674594
3.549996	1.676506
3.557139	1.667268
3.564282	1.674594
3.571425	1.671091
3.578568	1.674276
3.585711	1.666312
3.592854	1.673320
3.599996	1.666631
3.607139	1.662809
3.614282	1.675232
3.621425	1.674594
3.628568	1.670453
3.635711	1.672046
3.642854	1.669498
3.649996	1.670453
3.657139	1.671409
3.664282	1.680010
3.671425	1.677461
3.678568	1.669816
3.685711	1.674594
3.692853	1.673957
3.699996	1.671728
3.707139	1.674594
3.714282	1.672046
3.721425	1.665357
3.728568	1.672046
3.735711	1.674913
3.742853	1.672683
3.749996	1.670772
3.757139	1.674276
3.764282	1.679373
3.771425	1.673639
3.778568	1.679054
3.785710	1.668542
3.792853	1.676824
3.799996	1.667268
3.807139	1.677143
3.814282	1.667587
3.821425	1.669179
3.828568	1.673639
3.835710	1.672046
3.842853	1.668861
3.849996	1.672046
3.857139	1.671728
3.864282	1.675232
3.871425	1.671728
3.878568	1.674913
3.885710	1.674276
3.892853	1.672046
3.899996	1.670772
3.907139	1.673957
3.914282	1.672046
3.921425	1.665038
3.928568	1.673002
3.935710	1.671409
3.942853	1.672046
3.949996	1.675869
3.957139	1.667268
3.964282	1.676824
3.971425	1.670453
3.978567	1.666631
3.985710	1.671728
3.992853	1.663764
3.999996	1.671409
4.007139	1.657393
4.014282	1.673320
4.021425	1.667905
4.028567	1.667905
4.035710	1.672046
4.042853	1.677143
4.049996	1.665357
4.057139	1.676187
4.064282	1.667905
4.071424	1.674276
4.078567	1.669179
4.085710	1.665994
4.092853	1.678098
4.099996	1.672365
4.107139	1.675869
4.114282	1.675550
4.121424	1.668542
4.128567	1.673320
4.135710	1.669179
4.142853	1.672046
4.149996	1.668861
4.157139	1.673639
4.164282	1.669179
4.171424	1.676506
4.178567	1.666631
4.185710	1.674276
4.192853	1.673957
4.199996	1.677780
4.207139	1.674276
4.214282	1.668861
4.221424	1.680965
4.228567	1.674913
4.235710	1.677780
4.242853	1.667905
4.249996	1.675232
4.257139	1.673639
4.264281	1.659942
4.271424	1.680328
4.278567	1.666950
4.285710	1.672683
4.292853	1.668224
4.299996	1.670135
4.307139	1.673639
4.314281	1.673957
4.321424	1.674276
4.328567	1.671091
4.335710	1.664083
4.342853	1.674276
4.349996	1.668224
4.357139	1.674276
4.364281	1.669179
4.371424	1.675550
4.378567	1.670772
4.385710	1.673639
4.392853	1.665357
4.399996	1.671728
4.407138	1.665994
4.414281	1.672365
4.421424	1.666631
4.428567	1.667905
4.435710	1.671091
4.442853	1.668861
4.449996	1.671728
4.457138	1.668861
4.464281	1.673002
4.471424	1.672046
4.478567	1.661534
4.485710	1.674913
4.492853	1.666950
4.499995	1.674594
4.507138	1.672046
4.514281	1.673639
4.521424	1.669816
4.528567	1.670135
4.535710	1.669179
4.542853	1.673957
4.549995	1.672046
4.557138	1.674276
4.564281	1.670453
4.571424	1.680010
4.578567	1.674276
4.585710	1.675232
4.592853	1.671728
4.599995	1.672683
4.607138	1.672365
4.614281	1.673320
4.621424	1.675869
4.628567	1.673002
4.635710	1.675869
4.642853	1.666950
4.649995	1.675869
4.657138	1.675869
4.664281	1.675550
4.671424	1.672683
4.678567	1.675232
4.685710	1.667587
4.692852	1.676824
4.699995	1.668542
4.707138	1.670772
4.714281	1.673320
4.721424	1.667268
4.728567	1.680010
4.735710	1.667587
4.742852	1.674276
4.749995	1.665994
4.757138	1.676824
4.764281	1.668224
4.771424	1.669816
4.778567	1.674276
4.785710	1.666950
4.792852	1.673957
4.799995	1.671091
4.807138	1.674594
4.814281	1.675869
4.821424	1.673957
4.828567	1.678098
4.835709	1.671091
4.842852	1.676824
4.849995	1.673320
4.857138	1.673957
4.864281	1.674276
4.871424	1.674276
4.878567	1.674913
4.885709	1.671728
4.892852	1.680965
4.899995	1.676824
4.907138	1.675232
4.914281	1.668542
4.921424	1.677143
4.928566	1.656756
4.935709	1.674913
4.942852	1.673320
4.949995	1.675550
4.957138	1.669816
4.964281	1.669179
4.971424	1.675232
4.978566	1.670772
4.985709	1.669816
4.992852	1.681602

